# Model  x [km]   T[K]     ne [cm^-3]    vturb [cm/s]       B[G]       thetaB[deg]       chiB[deg]
'Z'
'MAGNETIC'
NORMAL_ABUNDANCES
          55
      -146.89884      6780.30   3.6020464e+14      0.60000000       2.4620000       2000.0000       20.000000      0.00000
      -137.56006      6536.00   2.4212362e+14      0.60000000       2.4290000       2000.0000       20.000000      0.00000
      -127.08877      6291.90   1.6391314e+14      0.60000000       2.3960000       2000.0000       20.000000      0.00000
      -115.46655      6048.50   1.1412564e+14      0.60000000       2.3630000       2000.0000       20.000000      0.00000
      -103.01162      5806.50   8.3429683e+13      0.60000000       2.3300000       2000.0000       20.000000      0.00000
      -90.426168      5569.50   6.4227696e+13      0.60000000       2.2970000       2000.0000       20.000000      0.00000
      -78.436394      5340.70   5.0783630e+13      0.60000000       2.2640000       2000.0000       20.000000      0.00000
      -67.346004      5117.30   3.9843125e+13      0.60000000       2.2310000       2000.0000       20.000000      0.00000
      -57.065744      4902.90   3.0460479e+13      0.60000000       2.1980000       2000.0000       20.000000      0.00000
      -47.342698      4700.40   2.2610738e+13      0.60000000       2.1650000       2000.0000       20.000000      0.00000
      -37.923379      4513.90   1.6474015e+13      0.60000000       2.1320000       2000.0000       20.000000      0.00000
      -28.588113      4342.30   1.1906450e+13      0.60000000       2.0990000       2000.0000       20.000000      0.00000
      -19.191483      4188.80   8.6951472e+12      0.60000000       2.0660000       2000.0000       20.000000      0.00000
      -9.6643948      4053.40   6.4878977e+12      0.60000000       2.0330000       2000.0000       20.000000      0.00000
       0.0000000      3940.50   5.0157756e+12      0.60000000       2.0000000       2000.0000       20.000000      0.00000
       9.7547651      3854.00   4.0395698e+12      0.60000000       1.9670000       2000.0000       20.000000      0.00000
       19.546959      3785.00   3.3384574e+12      0.60000000       1.9340000       2000.0000       20.000000      0.00000
       29.356853      3726.80   2.7991274e+12      0.60000000       1.9010000       2000.0000       20.000000      0.00000
       39.186336      3676.70   2.3698368e+12      0.60000000       1.8680000       2000.0000       20.000000      0.00000
       49.043984      3633.60   2.0218806e+12      0.60000000       1.8350000       2000.0000       20.000000      0.00000
       58.935895      3597.90   1.7390042e+12      0.60000000       1.8020000       2000.0000       20.000000      0.00000
       68.873623      3564.70   1.4977724e+12      0.60000000       1.7690000       2000.0000       20.000000      0.00000
       78.880268      3534.90   1.2931590e+12      0.60000000       1.7360000       2000.0000       20.000000      0.00000
       88.969464      3511.60   1.1240391e+12      0.60000000       1.7030000       2000.0000       20.000000      0.00000
       99.132082      3498.00   9.8869776e+11      0.60000000       1.6700000       2000.0000       20.000000      0.00000
       109.34654      3489.40   8.7553049e+11      0.60000000       1.6370000       2000.0000       20.000000      0.00000
       119.59994      3482.20   7.7721845e+11      0.60000000       1.6040000       2000.0000       20.000000      0.00000
       129.88493      3475.60   6.9102198e+11      0.60000000       1.5710000       2000.0000       20.000000      0.00000
       140.19511      3468.90   6.1477692e+11      0.60000000       1.5380000       2000.0000       20.000000      0.00000
       150.52560      3461.60   5.4686464e+11      0.60000000       1.5050000       2000.0000       20.000000      0.00000
       160.87278      3453.60   4.8625600e+11      0.60000000       1.4720000       2000.0000       20.000000      0.00000
       171.23316      3445.20   4.3233236e+11      0.60000000       1.4390000       2000.0000       20.000000      0.00000
       181.60302      3436.40   3.8432944e+11      0.60000000       1.4060000       2000.0000       20.000000      0.00000
       191.97926      3427.00   3.4146353e+11      0.60000000       1.3730000       2000.0000       20.000000      0.00000
       202.35952      3417.10   3.0322003e+11      0.60000000       1.3400000       2000.0000       20.000000      0.00000
       212.74247      3406.50   2.6899632e+11      0.60000000       1.3070000       2000.0000       20.000000      0.00000
       223.12817      3395.30   2.3840938e+11      0.60000000       1.2740000       2000.0000       20.000000      0.00000
       233.51789      3383.40   2.1103182e+11      0.60000000       1.2410000       2000.0000       20.000000      0.00000
       243.91512      3370.80   1.8652783e+11      0.60000000       1.2080000       2000.0000       20.000000      0.00000
       254.32480      3357.90   1.6471818e+11      0.60000000       1.1750000       2000.0000       20.000000      0.00000
       264.75259      3345.10   1.4541031e+11      0.60000000       1.1420000       2000.0000       20.000000      0.00000
       275.20519      3332.40   1.2831037e+11      0.60000000       1.1090000       2000.0000       20.000000      0.00000
       285.69207      3319.20   1.1303379e+11      0.60000000       1.0760000       2000.0000       20.000000      0.00000
       296.22711      3305.50   9.9386500e+10      0.60000000       1.0430000       2000.0000       20.000000      0.00000
       306.82908      3291.10   8.7162198e+10      0.60000000       1.0100000       2000.0000       20.000000      0.00000
       317.52354      3276.00   7.6214876e+10      0.60000000      0.97700000       2000.0000       20.000000      0.00000
       328.34486      3260.10   6.6399784e+10      0.60000000      0.94400000       2000.0000       20.000000      0.00000
       339.33913      3243.50   5.7612916e+10      0.60000000      0.91100000       2000.0000       20.000000      0.00000
       350.56920      3225.90   4.9715734e+10      0.60000000      0.87800000       2000.0000       20.000000      0.00000
       362.12207      3207.50   4.2634509e+10      0.60000000      0.84500000       2000.0000       20.000000      0.00000
       374.12035      3188.50   3.6293082e+10      0.60000000      0.81200000       2000.0000       20.000000      0.00000
       386.74065      3170.50   3.0696635e+10      0.60000000      0.77900000       2000.0000       20.000000      0.00000
       400.24573      3155.70   2.5831676e+10      0.60000000      0.74600000       2000.0000       20.000000      0.00000
       415.05188      3142.80   2.1477502e+10      0.60000000      0.71300000       2000.0000       20.000000      0.00000
       431.87891      3129.70   1.7429127e+10      0.60000000      0.68000000       2000.0000       20.000000      0.00000
